Wavelength (nm),Current (A)
1520,0.0005936512000000001
1521,0.0006432319999999999
1522,0.0007111728000000001
1523,0.0007925616000000001
1524,0.0008521487999999999
1525,0.0008590847999999997
1526,0.0008500927999999999
1527,0.0008336656
1528,0.0008216351999999999
1529,0.0007995135999999998
1530,0.0007847696
1531,0.0007654864
1532,0.0007411568
1533,0.0007257072000000001
1534,0.0006972335999999999
1535,0.0006752960000000003
1536,0.0006606672
1537,0.0006333856000000002
1538,0.0006153615999999999
1539,0.0005901872000000001
1540,0.0005683568
1541,0.0005493472000000001
1542,0.0005273056
1543,0.0005052368
1544,0.0004859135999999999
1545,0.0004571855999999999
1546,0.00043823360000000005
1547,0.00041679999999999994
1548,0.00039112160000000007
1549,0.00037224320000000003
1550,0.0003514751999999999
1551,0.0003312064
1552,0.0003104736
1553,0.0002919360000000001
1554,0.0002712624
1555,0.00025409439999999993
1556,0.00023467679999999993
1557,0.00021916160000000004
1558,0.0002040672
1559,0.00019028800000000002
1560,0.0001786656
1561,0.00016890720000000006
1562,0.000162568
1563,0.00016541760000000005
1564,0.0001750896
1565,0.00020276319999999997
1566,0.00022260000000000002
1567,0.00024838559999999993
1568,0.00027860000000000005
1569,0.00031043520000000003
1570,0.00033698079999999996
