Wavelength (nm),Current (A)
1520,4.21584e-05
1521,4.188960000000001e-05
1522,4.0190400000000014e-05
1523,3.860800000000001e-05
1524,3.72208e-05
1525,3.633440000000001e-05
1526,3.5043200000000004e-05
1527,3.656800000000001e-05
1528,3.736000000000001e-05
1529,3.868960000000001e-05
1530,4.0708800000000006e-05
1531,4.3897600000000005e-05
1532,4.75792e-05
1533,5.21296e-05
1534,5.5459199999999986e-05
1535,5.9937599999999993e-05
1536,6.592319999999997e-05
1537,7.25472e-05
1538,7.944640000000001e-05
1539,8.7744e-05
1540,9.529599999999999e-05
1541,0.00010624639999999997
1542,0.00011644800000000001
1543,0.00012615040000000003
1544,0.00013639999999999998
1545,0.0001477264
1546,0.00015789439999999998
1547,0.00016802239999999999
1548,0.00018137599999999997
1549,0.00019832320000000005
1550,0.00021324000000000004
1551,0.00022434400000000005
1552,0.00023770399999999993
1553,0.0002495183999999999
1554,0.00026938080000000006
1555,0.0002901504000000001
1556,0.00030612160000000006
1557,0.00032907039999999997
1558,0.0003485231999999999
1559,0.00037000319999999995
1560,0.0003889664000000001
1561,0.0004072927999999999
1562,0.00042581760000000003
1563,0.00044243679999999994
1564,0.00044970559999999994
1565,0.00045242559999999994
1566,0.00041937759999999995
1567,0.000377552
1568,0.0003325039999999999
1569,0.0002860208000000001
1570,0.00024708799999999996
